Method:,Hadamard 1,,
Host Date-Time:,21/9/17 @ 16:6:41,,
Header Version:,1,,
System Temp (C):,35.89,,
Detector Temp (C):,32.02,,
Humidity (%):,15.54,,
Lamp PD:,3784,,
Shift Vector Coefficients:,-4.94391,0.050722,-0.00012551,,
Pixel to Wavelength Coefficients:,1825.37,-0.904915,-0.000245393,,
Serial Number:,5490013,,
Scan Config Name:,Hadamard 1,,
Scan Config Type:,Slew,,
Section 1,,
Start wavelength (nm):,900,,
End wavelength (nm):,1700,,
Pattern Pixel Width (nm):,   7.03,,,,
Exposure (ms):,  0.635,,,,
Digital Resolution:,228,,
Num Repeats:,6,,
PGA Gain:,64,,
Total Measurement Time in sec:,  2.704,,
Wavelength (nm),Absorbance (AU),Reference Signal (unitless),Sample Signal (unitless)
901.954013,0.912287,49060.000000,6004.000000
905.892287,0.922934,55034.000000,6572.000000
909.826144,0.927031,60670.000000,7177.000000
913.755584,0.929367,66564.000000,7832.000000
917.680607,0.932688,73798.000000,8617.000000
921.601213,0.933955,82680.000000,9626.000000
925.517402,0.943577,93358.000000,10631.000000
929.429174,0.948157,105370.000000,11873.000000
933.336529,0.953764,117914.000000,13116.000000
937.239466,0.954988,129489.000000,14363.000000
941.137987,0.956274,140109.000000,15495.000000
945.032090,0.958669,149394.000000,16431.000000
950.217358,0.964913,160809.000000,17434.000000
954.101155,0.970145,168910.000000,18093.000000
957.980534,0.974930,177304.000000,18784.000000
961.855497,0.980546,185081.000000,19356.000000
965.726043,0.984878,193890.000000,20076.000000
969.592172,0.986441,202944.000000,20938.000000
973.453884,0.984488,211673.000000,21937.000000
977.311178,0.987168,220789.000000,22741.000000
981.164056,0.983780,229670.000000,23841.000000
985.012516,0.986404,238709.000000,24630.000000
988.856560,0.984229,247015.000000,25615.000000
992.696186,0.981813,254995.000000,26590.000000
997.808817,0.976183,264443.000000,27935.000000
1001.638136,0.972278,271279.000000,28916.000000
1005.463039,0.969731,277527.000000,29756.000000
1009.283525,0.966561,282638.000000,30526.000000
1013.099593,0.964079,286846.000000,31158.000000
1016.911245,0.960977,290773.000000,31811.000000
1020.718479,0.960784,294344.000000,32216.000000
1024.521297,0.957075,296615.000000,32743.000000
1028.319697,0.953602,298225.000000,33185.000000
1032.113680,0.951864,299236.000000,33431.000000
1035.903247,0.947266,300008.000000,33874.000000
1039.688396,0.944890,299754.000000,34031.000000
1044.728390,0.944080,299178.000000,34029.000000
1048.503233,0.942964,298603.000000,34051.000000
1052.273658,0.940336,298841.000000,34285.000000
1056.039667,0.938397,298985.000000,34455.000000
1059.801258,0.938938,298645.000000,34373.000000
1063.558432,0.939260,299136.000000,34404.000000
1067.311190,0.937533,299179.000000,34546.000000
1071.059530,0.936448,299581.000000,34679.000000
1074.803453,0.937444,300243.000000,34676.000000
1078.542959,0.937934,301102.000000,34736.000000
1082.278048,0.939274,302928.000000,34839.000000
1087.251296,0.941263,304860.000000,34901.000000
1090.976078,0.940700,305940.000000,35070.000000
1094.696443,0.943933,308331.000000,35082.000000
1098.412392,0.946446,310748.000000,35153.000000
1102.123923,0.948444,312998.000000,35245.000000
1105.831037,0.951089,315098.000000,35266.000000
1109.533734,0.953013,317331.000000,35359.000000
1113.232014,0.957061,320031.000000,35329.000000
1116.925877,0.959714,322065.000000,35337.000000
1120.615323,0.964953,324387.000000,35165.000000
1124.300352,0.970131,326504.000000,34975.000000
1127.980964,0.976513,328628.000000,34689.000000
1132.881575,0.990942,331748.000000,33874.000000
1136.551880,1.005651,334038.000000,32972.000000
1140.217768,1.022235,336305.000000,31952.000000
1143.879240,1.039586,338467.000000,30898.000000
1147.536294,1.055641,341029.000000,30002.000000
1151.188931,1.071344,343568.000000,29152.000000
1154.837150,1.084901,346388.000000,28488.000000
1158.480953,1.095417,348724.000000,27994.000000
1162.120339,1.104398,351242.000000,27619.000000
1165.755308,1.112559,353874.000000,27308.000000
1169.385859,1.119416,356649.000000,27091.000000
1173.011994,1.123350,359562.000000,27066.000000
1177.839969,1.130740,363963.000000,26935.000000
1181.455797,1.134581,367114.000000,26929.000000
1185.067208,1.140159,371459.000000,26900.000000
1188.674202,1.146520,376057.000000,26837.000000
1192.276779,1.151448,381213.000000,26898.000000
1195.874938,1.155780,386738.000000,27017.000000
1199.468681,1.159085,391755.000000,27160.000000
1203.058007,1.164786,397005.000000,27165.000000
1206.642915,1.166881,402743.000000,27425.000000
1210.223407,1.167406,408846.000000,27807.000000
1213.799481,1.168703,414567.000000,28112.000000
1217.371139,1.162710,420274.000000,28895.000000
1222.126477,1.155210,429462.000000,30041.000000
1225.687828,1.147726,436148.000000,31039.000000
1229.244762,1.141339,442616.000000,31966.000000
1232.797279,1.136102,449528.000000,32859.000000
1236.345378,1.130079,456181.000000,33811.000000
1239.889061,1.124957,463539.000000,34764.000000
1243.428326,1.120318,470079.000000,35633.000000
1246.963175,1.117363,477832.000000,36468.000000
1250.493606,1.114279,486017.000000,37357.000000
1254.019620,1.110785,493169.000000,38213.000000
1257.541217,1.109195,500985.000000,38961.000000
1262.229809,1.108057,512345.000000,39949.000000
1265.741100,1.105032,521283.000000,40930.000000
1269.247974,1.105471,529269.000000,41515.000000
1272.750430,1.105833,537340.000000,42113.000000
1276.248470,1.105294,545875.000000,42835.000000
1279.742092,1.106773,555063.000000,43408.000000
1283.231297,1.105934,564343.000000,44219.000000
1286.716086,1.106636,572146.000000,44758.000000
1290.196457,1.109979,579645.000000,44997.000000
1293.672411,1.111821,587401.000000,45406.000000
1297.143948,1.115570,594698.000000,45575.000000
1300.611068,1.119429,600598.000000,45620.000000
1305.227024,1.126527,608153.000000,45445.000000
1308.683837,1.132799,613606.000000,45195.000000
1312.136234,1.140575,618333.000000,44735.000000
1315.584213,1.148881,622186.000000,44161.000000
1319.027775,1.156240,626212.000000,43700.000000
1322.466920,1.165702,629123.000000,42957.000000
1325.901648,1.174985,632257.000000,42258.000000
1329.331960,1.183648,634373.000000,41562.000000
1332.757853,1.192658,637449.000000,40906.000000
1336.179330,1.203041,638859.000000,40028.000000
1339.596390,1.213011,639307.000000,39147.000000
1343.009033,1.222103,639741.000000,38362.000000
1347.552352,1.234021,639954.000000,37336.000000
1350.954689,1.240472,639197.000000,36742.000000
1354.352608,1.248554,637095.000000,35946.000000
1357.746110,1.256529,635707.000000,35215.000000
1361.135195,1.264372,635123.000000,34553.000000
1364.519863,1.273100,634326.000000,33823.000000
1367.900114,1.280724,633706.000000,33202.000000
1371.275948,1.294436,632818.000000,32125.000000
1374.647365,1.309638,631840.000000,30972.000000
1378.014364,1.327671,630473.000000,29648.000000
1381.376947,1.348679,628531.000000,28161.000000
1384.735112,1.375619,626532.000000,26383.000000
1389.205796,1.413367,624624.000000,24113.000000
1392.553655,1.443331,623113.000000,22451.000000
1395.897097,1.472435,620419.000000,20905.000000
1399.236121,1.492541,617552.000000,19867.000000
1402.570729,1.516401,614762.000000,18720.000000
1405.900920,1.538201,612223.000000,17730.000000
1409.226694,1.550367,609090.000000,17152.000000
1412.548050,1.565417,606267.000000,16491.000000
1415.864990,1.572066,604085.000000,16182.000000
1419.177512,1.583020,601598.000000,15714.000000
1422.485618,1.590670,599041.000000,15374.000000
1425.789306,1.596180,597337.000000,15137.000000
1430.187353,1.604922,596156.000000,14806.000000
1433.480735,1.610267,594897.000000,14594.000000
1436.769700,1.609342,593265.000000,14585.000000
1440.054247,1.612128,592538.000000,14474.000000
1443.334378,1.616794,592442.000000,14317.000000
1446.610092,1.617203,591634.000000,14284.000000
1449.881388,1.624904,590624.000000,14009.000000
1453.148268,1.619847,589538.000000,14147.000000
1456.410730,1.623588,588501.000000,14001.000000
1459.668775,1.620248,587287.000000,14080.000000
1462.922403,1.623890,585671.000000,13924.000000
1467.253703,1.621034,582794.000000,13947.000000
1470.497025,1.620214,580610.000000,13921.000000
1473.735930,1.618345,577909.000000,13916.000000
1476.970417,1.617394,575029.000000,13877.000000
1480.200488,1.615222,572573.000000,13887.000000
1483.426141,1.609971,569317.000000,13976.000000
1486.647377,1.606687,566200.000000,14005.000000
1489.864197,1.607416,563548.000000,13916.000000
1493.076599,1.604914,560672.000000,13925.000000
1496.284584,1.600957,557463.000000,13972.000000
1499.488152,1.595792,554342.000000,14060.000000
1502.687303,1.590206,551461.000000,14168.000000
1506.945967,1.586612,547148.000000,14174.000000
1510.134811,1.583559,543660.000000,14183.000000
1513.319239,1.578964,539758.000000,14231.000000
1516.499249,1.573765,535471.000000,14288.000000
1519.674842,1.569676,532013.000000,14330.000000
1522.846019,1.566866,528361.000000,14324.000000
1526.012778,1.560720,524573.000000,14424.000000
1529.175120,1.555312,520416.000000,14489.000000
1532.333045,1.554659,516298.000000,14396.000000
1535.486553,1.548738,511961.000000,14471.000000
1538.635644,1.545276,507264.000000,14453.000000
1541.780317,1.544762,502598.000000,14337.000000
1545.966345,1.532471,495525.000000,14541.000000
1549.100712,1.528091,490417.000000,14537.000000
1552.230662,1.524546,485561.000000,14511.000000
1555.356195,1.521284,480300.000000,14462.000000
1558.477312,1.515102,475181.000000,14513.000000
1561.594011,1.515413,469394.000000,14326.000000
1564.706292,1.510567,463084.000000,14292.000000
1567.814157,1.502905,456769.000000,14348.000000
1570.917605,1.503088,449763.000000,14122.000000
1574.016636,1.499377,442305.000000,14007.000000
1577.111250,1.498141,435601.000000,13834.000000
1580.201446,1.494715,429304.000000,13742.000000
1584.314837,1.491494,419868.000000,13540.000000
1587.394727,1.488685,412909.000000,13402.000000
1590.470200,1.487275,405705.000000,13211.000000
1593.541256,1.483958,398199.000000,13066.000000
1596.607895,1.481316,391483.000000,12924.000000
1599.670117,1.479975,384206.000000,12723.000000
1602.727922,1.476894,376903.000000,12570.000000
1605.781309,1.473625,369166.000000,12405.000000
1608.830280,1.471179,361766.000000,12225.000000
1611.874833,1.469991,354492.000000,12012.000000
1614.914970,1.465784,346895.000000,11869.000000
1618.961614,1.468862,336764.000000,11441.000000
1621.991444,1.460943,328280.000000,11358.000000
1625.016857,1.458118,320983.000000,11178.000000
1628.037853,1.456190,313615.000000,10970.000000
1631.054431,1.462340,305822.000000,10547.000000
1634.066593,1.456841,298052.000000,10410.000000
1637.074338,1.455917,289847.000000,10145.000000
1640.077665,1.449961,282546.000000,10026.000000
1643.076576,1.456188,275048.000000,9621.000000
1646.071069,1.446794,267456.000000,9560.000000
1649.061145,1.449120,259413.000000,9223.000000
1652.046804,1.451894,251508.000000,8885.000000
1656.020812,1.444738,240659.000000,8643.000000
1658.996165,1.447021,231683.000000,8277.000000
1661.967101,1.439486,221811.000000,8063.000000
1664.933619,1.434358,211187.000000,7768.000000
1667.895721,1.426903,198159.000000,7415.000000
1670.853405,1.415520,183583.000000,7052.000000
1673.806673,1.414832,166424.000000,6403.000000
1676.755523,1.390255,147885.000000,6021.000000
1679.699956,1.375948,128928.000000,5425.000000
1682.639972,1.366961,110621.000000,4752.000000
1685.575571,1.369577,94076.000000,4017.000000
1688.506753,1.363573,79942.000000,3461.000000
1692.408125,1.379298,64161.000000,2679.000000
1695.329001,1.382874,54477.000000,2256.000000
1698.245459,1.391051,46654.000000,1896.000000
1701.157501,1.367518,40021.000000,1717.000000
